# %ECSV 1.0
# ---
# datatype:
# - {name: wavelength, unit: Angstrom, datatype: float64}
# - {name: response, datatype: float64}
# meta:
#   __serialized_columns__:
#     wavelength:
#       __class__: astropy.units.quantity.Quantity
#       unit: !astropy.units.Unit {unit: Angstrom}
#       value: !astropy.table.SerializedColumn {name: wavelength}
#   band_name: r
#   group_name: ztf
# schema: astropy-2.0
wavelength response
5497.6 0.0
5498.3 0.00131
5499.0 0.00122
5499.700000000001 0.00132
5500.4 0.0013700000000000001
5501.2 0.00133
5501.900000000001 0.00128
5502.6 0.00124
5503.3 0.00122
5504.0 0.00124
5504.700000000001 0.00127
5505.4 0.00125
5506.1 0.00113
5506.900000000001 0.00128
5507.6 0.00123
5508.3 0.00132
5509.0 0.00125
5509.700000000001 0.0011799999999999998
5510.4 0.00109
5511.1 0.00122
5511.799999999999 0.00125
5512.5 0.00122
5513.3 0.00126
5514.0 0.00126
5514.700000000001 0.0013700000000000001
5515.4 0.0013900000000000002
5516.1 0.0013700000000000001
5516.799999999999 0.00128
5517.5 0.00122
5518.200000000001 0.00124
5518.9 0.00134
5519.6 0.00132
5520.4 0.0014099999999999998
5521.1 0.00133
5521.799999999999 0.00136
5522.5 0.0013800000000000002
5523.200000000001 0.0014000000000000002
5523.9 0.00126
5524.6 0.0013700000000000001
5525.299999999999 0.0014199999999999998
5526.0 0.0014399999999999999
5526.7 0.00134
5527.5 0.0014299999999999998
5528.200000000001 0.0013800000000000002
5528.9 0.0012900000000000001
5529.6 0.00149
5530.299999999999 0.00154
5531.0 0.0013800000000000002
5531.7 0.00159
5532.4 0.0013900000000000002
5533.099999999999 0.00151
5533.8 0.00151
5534.5 0.00159
5535.299999999999 0.00136
5536.0 0.0014199999999999998
5536.7 0.00161
5537.4 0.0016
5538.099999999999 0.0016300000000000002
5538.8 0.0013800000000000002
5539.5 0.0014199999999999998
5540.2 0.00165
5540.900000000001 0.00166
5541.599999999999 0.0016200000000000001
5542.3 0.00167
5543.0 0.0017399999999999998
5543.8 0.00166
5544.5 0.0017100000000000001
5545.2 0.00169
5545.900000000001 0.0017599999999999998
5546.599999999999 0.00172
5547.3 0.0017000000000000001
5548.0 0.0018
5548.7 0.00183
5549.400000000001 0.0018
5550.1 0.00182
5550.8 0.0018599999999999999
5551.5 0.00188
5552.200000000001 0.00187
5552.9 0.00193
5553.7 0.00208
5554.400000000001 0.0018599999999999999
5555.1 0.00199
5555.8 0.00196
5556.5 0.00216
5557.200000000001 0.00199
5557.9 0.0020499999999999997
5558.6 0.00218
5559.299999999999 0.00221
5560.0 0.00216
5560.700000000001 0.00231
5561.4 0.0022
5562.1 0.00228
5562.799999999999 0.00233
5563.5 0.00234
5564.2 0.00241
5565.0 0.00246
5565.700000000001 0.00245
5566.4 0.0027300000000000002
5567.1 0.0027400000000000002
5567.799999999999 0.00263
5568.5 0.00268
5569.2 0.00272
5569.9 0.0028100000000000004
5570.599999999999 0.00302
5571.3 0.00312
5572.0 0.00306
5572.7 0.00307
5573.400000000001 0.00316
5574.099999999999 0.00314
5574.8 0.0032600000000000003
5575.5 0.00334
5576.2 0.0035499999999999998
5576.900000000001 0.0034699999999999996
5577.6 0.0037
5578.3 0.00376
5579.0 0.00376
5579.700000000001 0.00395
5580.4 0.00394
5581.2 0.004050000000000001
5581.900000000001 0.00425
5582.6 0.00438
5583.3 0.00442
5584.0 0.00446
5584.700000000001 0.00464
5585.4 0.00498
5586.1 0.00499
5586.799999999999 0.00493
5587.5 0.00526
5588.200000000001 0.00551
5588.9 0.005639999999999999
5589.6 0.00586
5590.299999999999 0.00605
5591.0 0.00621
5591.7 0.00637
5592.4 0.00653
5593.099999999999 0.00676
5593.8 0.00699
5594.5 0.00734
5595.2 0.00776
5595.900000000001 0.007940000000000001
5596.599999999999 0.00819
5597.3 0.00835
5598.0 0.0085
5598.7 0.00891
5599.400000000001 0.00946
5600.1 0.00962
5600.8 0.00987
5601.5 0.01034
5602.200000000001 0.01068
5602.9 0.011279999999999998
5603.6 0.01192
5604.299999999999 0.01205
5605.0 0.01238
5605.700000000001 0.01316
5606.4 0.014159999999999999
5607.1 0.01431
5607.799999999999 0.01518
5608.5 0.015300000000000001
5609.2 0.01657
5609.9 0.0167
5610.599999999999 0.018000000000000002
5611.3 0.0183
5612.0 0.018879999999999997
5612.7 0.0203
5613.400000000001 0.021110000000000004
5614.099999999999 0.02193
5614.8 0.02377
5615.5 0.02413
5616.2 0.025390000000000003
5616.900000000001 0.02699
5617.6 0.027690000000000003
5618.3 0.02889
5619.0 0.030510000000000002
5619.700000000001 0.03239
5620.4 0.033889999999999997
5621.1 0.03555
5621.799999999999 0.0362
5622.5 0.038450000000000005
5623.200000000001 0.040839999999999994
5623.9 0.04327
5624.6 0.045919999999999996
5625.299999999999 0.04804
5626.0 0.05113
5626.7 0.05355000000000001
5627.4 0.05567999999999999
5628.099999999999 0.059059999999999994
5628.8 0.06194
5629.5 0.06536
5630.2 0.06959
5630.900000000001 0.07301
5631.599999999999 0.07699
5632.3 0.08115
5633.0 0.08596999999999999
5633.7 0.09054000000000001
5634.400000000001 0.09678
5635.1 0.10134
5635.8 0.10695
5636.5 0.11341
5637.1 0.12074
5637.799999999999 0.12799
5638.5 0.13533
5639.2 0.14204
5639.9 0.14965
5640.599999999999 0.16001
5641.3 0.16926
5642.0 0.17861999999999997
5642.7 0.18877
5643.400000000001 0.20010999999999998
5644.099999999999 0.21248
5644.8 0.22437
5645.5 0.23668
5646.2 0.25047
5646.900000000001 0.26478
5647.6 0.27887
5648.3 0.29328
5649.0 0.31024999999999997
5649.700000000001 0.32643
5650.4 0.34438
5651.1 0.36365000000000003
5651.799999999999 0.38084
5652.4 0.40009999999999996
5653.099999999999 0.41773000000000005
5653.8 0.43613
5654.5 0.45919
5655.2 0.4783
5655.900000000001 0.49916
5656.599999999999 0.51834
5657.3 0.53838
5658.0 0.55957
5658.7 0.57963
5659.400000000001 0.59893
5660.1 0.61702
5660.8 0.63549
5661.5 0.65385
5662.200000000001 0.6702400000000001
5662.9 0.69012
5663.5 0.70453
5664.2 0.7198300000000001
5664.9 0.73583
5665.599999999999 0.74765
5666.3 0.76027
5667.0 0.77093
5667.7 0.77987
5668.400000000001 0.79021
5669.099999999999 0.8005
5669.8 0.8049599999999999
5670.5 0.81294
5671.2 0.8188599999999999
5671.799999999999 0.82262
5672.5 0.82869
5673.200000000001 0.83353
5673.9 0.8339799999999999
5674.6 0.83836
5675.299999999999 0.8406399999999999
5676.0 0.8412999999999999
5676.7 0.8400700000000001
5677.4 0.84393
5678.099999999999 0.84194
5678.8 0.8444499999999999
5679.5 0.8440300000000001
5680.1 0.8421500000000001
5680.8 0.8442000000000001
5681.5 0.84387
5682.200000000001 0.8394499999999999
5682.9 0.8409099999999999
5683.6 0.83917
5684.299999999999 0.83719
5685.0 0.83552
5685.700000000001 0.83841
5686.4 0.83709
5687.0 0.83429
5687.7 0.83147
5688.400000000001 0.8344400000000001
5689.099999999999 0.82744
5689.8 0.8334699999999999
5690.5 0.83178
5691.2 0.8271200000000001
5691.900000000001 0.82991
5692.6 0.8292400000000001
5693.200000000001 0.8296800000000001
5693.9 0.8273600000000001
5694.6 0.82903
5695.299999999999 0.8307599999999999
5696.0 0.83041
5696.7 0.82707
5697.4 0.83124
5698.099999999999 0.8301099999999999
5698.7 0.83005
5699.400000000001 0.83092
5700.1 0.8330299999999999
5700.8 0.83284
5701.5 0.8359300000000001
5702.200000000001 0.8380299999999999
5702.9 0.83855
5703.6 0.8360500000000001
5704.2 0.83975
5704.9 0.84191
5705.599999999999 0.84538
5706.3 0.84651
5707.0 0.8412900000000001
5707.7 0.8476600000000001
5708.400000000001 0.8508100000000001
5709.099999999999 0.8486199999999999
5709.700000000001 0.85264
5710.4 0.8582299999999999
5711.1 0.85321
5711.799999999999 0.85952
5712.5 0.8630500000000001
5713.200000000001 0.8649899999999999
5713.9 0.86799
5714.5 0.86697
5715.2 0.87276
5715.900000000001 0.87643
5716.599999999999 0.8778900000000001
5717.3 0.8804900000000001
5718.0 0.88184
5718.7 0.8824
5719.299999999999 0.88849
5720.0 0.8884099999999999
5720.700000000001 0.88882
5721.4 0.89239
5722.1 0.8971899999999999
5722.799999999999 0.8996299999999999
5723.400000000001 0.90035
5724.099999999999 0.9042600000000001
5724.8 0.9031600000000001
5725.5 0.9074500000000001
5726.2 0.9052500000000001
5726.900000000001 0.9097700000000001
5727.5 0.9151600000000001
5728.200000000001 0.91456
5728.9 0.9186
5729.6 0.91839
5730.299999999999 0.92081
5731.0 0.92502
5731.599999999999 0.92277
5732.3 0.92375
5733.0 0.9293
5733.7 0.92841
5734.400000000001 0.92511
5735.1 0.92973
5735.700000000001 0.9318000000000001
5736.4 0.93285
5737.1 0.93703
5737.799999999999 0.9387000000000001
5738.5 0.93855
5739.099999999999 0.9407599999999999
5739.8 0.94151
5740.5 0.94143
5741.2 0.94393
5741.900000000001 0.9449200000000001
5742.6 0.9443600000000001
5743.200000000001 0.94746
5743.9 0.9434699999999999
5744.6 0.9477500000000001
5745.299999999999 0.9493600000000001
5746.0 0.9494199999999999
5746.599999999999 0.9520099999999999
5747.3 0.95319
5748.0 0.95282
5748.7 0.9548300000000001
5749.400000000001 0.95506
5750.0 0.9516100000000001
5750.700000000001 0.95408
5751.4 0.95542
5752.1 0.95254
5752.799999999999 0.9544799999999999
5753.400000000001 0.95301
5754.099999999999 0.95255
5754.8 0.95638
5755.5 0.95489
5756.2 0.95772
5756.799999999999 0.95794
5757.5 0.95812
5758.200000000001 0.9544799999999999
5758.9 0.95321
5759.5 0.95524
5760.2 0.95509
5760.900000000001 0.9526
5761.599999999999 0.95246
5762.3 0.9556600000000001
5762.9 0.94998
5763.6 0.9597
5764.299999999999 0.9523699999999999
5765.0 0.9558199999999999
5765.599999999999 0.95562
5766.3 0.95288
5767.0 0.9526699999999999
5767.7 0.94876
5768.400000000001 0.9486
5769.0 0.95307
5769.700000000001 0.95233
5770.4 0.9502700000000001
5771.1 0.95112
5771.7 0.9499500000000001
5772.4 0.9521200000000001
5773.099999999999 0.95498
5773.8 0.95011
5774.400000000001 0.9481
5775.1 0.94523
5775.8 0.94814
5776.5 0.94719
5777.1 0.94848
5777.799999999999 0.94549
5778.5 0.94949
5779.2 0.95295
5779.8 0.9423699999999999
5780.5 0.94706
5781.2 0.9445
5781.900000000001 0.9442900000000001
5782.5 0.9469299999999999
5783.200000000001 0.94305
5783.9 0.94266
5784.6 0.9456
5785.2 0.94592
5785.900000000001 0.9436199999999999
5786.599999999999 0.9404
5787.3 0.94151
5787.9 0.9430200000000001
5788.6 0.94108
5789.299999999999 0.94267
5790.0 0.93982
5790.599999999999 0.9406399999999999
5791.3 0.9407800000000001
5792.0 0.9403199999999999
5792.6 0.9384
5793.3 0.9412
5794.0 0.94187
5794.700000000001 0.9411499999999999
5795.299999999999 0.94023
5796.0 0.93704
5796.7 0.9411499999999999
5797.3 0.9379900000000001
5798.0 0.93759
5798.7 0.9372199999999999
5799.400000000001 0.93694
5800.0 0.93636
5800.700000000001 0.9376099999999999
5801.4 0.93419
5802.0 0.9390000000000001
5802.7 0.93932
5803.400000000001 0.93586
5804.099999999999 0.9357
5804.700000000001 0.9388200000000001
5805.4 0.93892
5806.1 0.93808
5806.7 0.93723
5807.4 0.93651
5808.099999999999 0.9377599999999999
5808.8 0.93643
5809.400000000001 0.93328
5810.1 0.9361799999999999
5810.8 0.93953
5811.4 0.9421599999999999
5812.1 0.934
5812.799999999999 0.93747
5813.400000000001 0.9357899999999999
5814.099999999999 0.9355
5814.8 0.93474
5815.4 0.93377
5816.1 0.93553
5816.799999999999 0.9341700000000001
5817.5 0.9338500000000001
5818.099999999999 0.93573
5818.8 0.93289
5819.5 0.93265
5820.1 0.93599
5820.8 0.93183
5821.5 0.9323600000000001
5822.1 0.93616
5822.799999999999 0.93486
5823.5 0.93294
5824.099999999999 0.93637
5824.8 0.9337399999999999
5825.5 0.93257
5826.1 0.9295300000000001
5826.799999999999 0.9331699999999999
5827.5 0.93388
5828.099999999999 0.9328
5828.8 0.93366
5829.5 0.9317
5830.1 0.93703
5830.8 0.9300700000000001
5831.5 0.9355899999999999
5832.1 0.93587
5832.799999999999 0.9356399999999999
5833.5 0.93322
5834.099999999999 0.93471
5834.8 0.93364
5835.5 0.9346
5836.1 0.9325
5836.799999999999 0.9309099999999999
5837.4 0.93308
5838.099999999999 0.93265
5838.8 0.9315000000000001
5839.400000000001 0.93042
5840.1 0.93192
5840.8 0.9327200000000001
5841.4 0.93069
5842.1 0.93131
5842.799999999999 0.93381
5843.400000000001 0.93215
5844.099999999999 0.93026
5844.8 0.93179
5845.4 0.93
5846.1 0.93306
5846.7 0.92767
5847.4 0.93195
5848.099999999999 0.929
5848.7 0.929
5849.400000000001 0.929
5850.1 0.93041
5850.700000000001 0.9300799999999999
5851.4 0.92975
5852.0 0.93086
5852.7 0.92848
5853.400000000001 0.9290600000000001
5854.0 0.92892
5854.700000000001 0.9303
5855.299999999999 0.92789
5856.0 0.9293899999999999
5856.7 0.9319299999999999
5857.3 0.92745
5858.0 0.92928
5858.7 0.92545
5859.299999999999 0.92838
5860.0 0.92743
5860.599999999999 0.9300799999999999
5861.3 0.93065
5862.0 0.92746
5862.6 0.92795
5863.3 0.9293899999999999
5863.9 0.9296
5864.6 0.92907
5865.299999999999 0.92762
5865.900000000001 0.93136
5866.599999999999 0.92813
5867.200000000001 0.9299200000000001
5867.9 0.92754
5868.6 0.9342199999999999
5869.2 0.9303199999999999
5869.9 0.9301900000000001
5870.5 0.92765
5871.2 0.92604
5871.799999999999 0.9292900000000001
5872.5 0.9290999999999999
5873.200000000001 0.92696
5873.8 0.9305800000000001
5874.5 0.9320900000000001
5875.1 0.9279900000000001
5875.8 0.9285
5876.4 0.9296599999999999
5877.1 0.93255
5877.799999999999 0.93128
5878.400000000001 0.92877
5879.099999999999 0.93059
5879.700000000001 0.9309099999999999
5880.4 0.9291200000000001
5881.0 0.9327500000000001
5881.7 0.93269
5882.4 0.93281
5883.0 0.93513
5883.7 0.9322
5884.299999999999 0.9341700000000001
5885.0 0.93292
5885.599999999999 0.9357800000000001
5886.3 0.93582
5886.900000000001 0.9358299999999999
5887.6 0.9345600000000001
5888.3 0.9351600000000001
5888.9 0.93771
5889.6 0.9375199999999999
5890.2 0.9374800000000001
5890.900000000001 0.9342100000000001
5891.5 0.93805
5892.200000000001 0.93754
5892.799999999999 0.94049
5893.5 0.9383400000000001
5894.099999999999 0.93931
5894.8 0.94182
5895.5 0.94182
5896.1 0.9426000000000001
5896.799999999999 0.94431
5897.4 0.94316
5898.099999999999 0.94261
5898.7 0.94549
5899.400000000001 0.94652
5900.0 0.94813
5900.700000000001 0.94744
5901.3 0.94789
5902.0 0.94792
5902.6 0.9521200000000001
5903.3 0.948
5903.9 0.95051
5904.6 0.9441299999999999
5905.2 0.9492
5905.900000000001 0.9473
5906.5 0.9468300000000001
5907.200000000001 0.94966
5907.799999999999 0.9525
5908.5 0.9540900000000001
5909.099999999999 0.95182
5909.8 0.9518099999999999
5910.4 0.95285
5911.1 0.95516
5911.7 0.95377
5912.4 0.95573
5913.0 0.9541299999999999
5913.7 0.95343
5914.299999999999 0.95438
5915.0 0.95539
5915.599999999999 0.9543699999999999
5916.3 0.95899
5916.900000000001 0.95938
5917.6 0.95473
5918.200000000001 0.95869
5918.9 0.95753
5919.5 0.9605800000000001
5920.2 0.95697
5920.8 0.95868
5921.5 0.96016
5922.1 0.95829
5922.799999999999 0.96084
5923.400000000001 0.96191
5924.099999999999 0.96033
5924.700000000001 0.9616
5925.4 0.9626699999999999
5926.0 0.96053
5926.7 0.96089
5927.3 0.9620000000000001
5928.0 0.96232
5928.6 0.96219
5929.2 0.9647100000000001
5929.9 0.9605899999999999
5930.5 0.9636199999999999
5931.2 0.96403
5931.799999999999 0.9618099999999999
5932.5 0.96057
5933.099999999999 0.96341
5933.8 0.96191
5934.400000000001 0.96601
5935.1 0.96443
5935.700000000001 0.9609399999999999
5936.4 0.96584
5937.0 0.9638899999999999
5937.6 0.9664100000000001
5938.3 0.9658199999999999
5938.9 0.9658100000000001
5939.6 0.96552
5940.2 0.9621
5940.900000000001 0.96539
5941.5 0.96489
5942.1 0.96447
5942.799999999999 0.96789
5943.400000000001 0.9631399999999999
5944.099999999999 0.96073
5944.700000000001 0.96677
5945.4 0.9638599999999999
5946.0 0.9657899999999999
5946.7 0.96295
5947.3 0.96235
5947.9 0.96309
5948.6 0.96569
5949.2 0.96238
5949.9 0.96568
5950.5 0.9649800000000001
5951.1 0.96552
5951.799999999999 0.96402
5952.4 0.96514
5953.099999999999 0.96602
5953.7 0.9645999999999999
5954.400000000001 0.9673099999999999
5955.0 0.96072
5955.599999999999 0.9636499999999999
5956.3 0.96325
5956.900000000001 0.96492
5957.6 0.96247
5958.200000000001 0.9621200000000001
5958.8 0.9625900000000001
5959.5 0.9630200000000001
5960.1 0.96127
5960.8 0.9633799999999999
5961.4 0.9598399999999999
5962.0 0.96366
5962.7 0.9625499999999999
5963.3 0.96256
5964.0 0.96367
5964.6 0.96147
5965.2 0.95937
5965.900000000001 0.9632999999999999
5966.5 0.9636100000000001
5967.1 0.96288
5967.799999999999 0.9610599999999999
5968.400000000001 0.96044
5969.099999999999 0.96309
5969.700000000001 0.9616899999999999
5970.299999999999 0.96285
5971.0 0.9627800000000001
5971.599999999999 0.96222
5972.200000000001 0.95868
5972.9 0.9650799999999999
5973.5 0.9628
5974.2 0.9630500000000001
5974.8 0.9588500000000001
5975.4 0.96222
5976.1 0.9614
5976.7 0.96245
5977.3 0.96185
5978.0 0.9598
5978.6 0.95806
5979.2 0.96309
5979.9 0.95975
5980.5 0.9576600000000001
5981.1 0.95958
5981.799999999999 0.9608199999999999
5982.4 0.9605
5983.099999999999 0.9585899999999999
5983.7 0.96018
5984.299999999999 0.9572400000000001
5985.0 0.96012
5985.599999999999 0.96336
5986.2 0.96024
5986.900000000001 0.95962
5987.5 0.96009
5988.099999999999 0.95839
5988.8 0.96042
5989.400000000001 0.96113
5990.0 0.95922
5990.700000000001 0.96399
5991.3 0.9607899999999999
5991.900000000001 0.96187
5992.6 0.95869
5993.200000000001 0.96162
5993.8 0.9591500000000001
5994.5 0.96309
5995.1 0.9603
5995.700000000001 0.95831
5996.3 0.9627500000000001
5997.0 0.95863
5997.6 0.96164
5998.200000000001 0.96012
5998.9 0.96536
5999.5 0.9594199999999999
6000.1 0.9617
6000.8 0.95982
6001.4 0.95923
6002.0 0.96232
6002.7 0.96135
6003.3 0.96289
6003.9 0.95872
6004.5 0.96131
6005.2 0.9621999999999999
6005.8 0.96175
6006.4 0.9589700000000001
6007.1 0.96272
6007.7 0.95825
6008.3 0.96315
6008.9 0.96146
6009.6 0.9636100000000001
6010.2 0.9603100000000001
6010.8 0.9631799999999999
6011.5 0.9568099999999999
6012.1 0.96053
6012.7 0.9598300000000001
6013.3 0.9617600000000001
6014.0 0.96285
6014.6 0.96084
6015.2 0.96607
6015.8 0.96009
6016.5 0.9616899999999999
6017.1 0.963
6017.7 0.9594799999999999
6018.400000000001 0.9614
6019.0 0.96315
6019.6 0.9620000000000001
6020.2 0.96163
6020.900000000001 0.96186
6021.5 0.96294
6022.1 0.9591200000000001
6022.7 0.95796
6023.400000000001 0.9604900000000001
6024.0 0.96205
6024.6 0.96057
6025.2 0.95857
6025.900000000001 0.95993
6026.5 0.9559799999999999
6027.1 0.9601999999999999
6027.7 0.9569
6028.400000000001 0.9603
6029.0 0.95709
6029.6 0.95719
6030.2 0.9568000000000001
6030.8 0.96112
6031.5 0.9555400000000001
6032.1 0.95569
6032.7 0.95792
6033.3 0.95363
6034.0 0.95557
6034.6 0.95926
6035.2 0.9565300000000001
6035.8 0.95661
6036.5 0.9544
6037.1 0.9565300000000001
6037.7 0.9560200000000001
6038.3 0.95467
6038.9 0.95587
6039.6 0.95706
6040.2 0.9565
6040.8 0.95164
6041.4 0.95438
6042.0 0.9497199999999999
6042.7 0.95187
6043.3 0.9526699999999999
6043.9 0.95478
6044.5 0.95194
6045.1 0.9515600000000001
6045.8 0.94613
6046.4 0.9461700000000001
6047.0 0.9504300000000001
6047.6 0.94982
6048.200000000001 0.9473
6048.9 0.948
6049.5 0.94487
6050.1 0.94607
6050.700000000001 0.9470999999999999
6051.3 0.94511
6051.900000000001 0.94461
6052.6 0.94659
6053.200000000001 0.9426000000000001
6053.8 0.94526
6054.400000000001 0.9431999999999999
6055.0 0.94286
6055.700000000001 0.94318
6056.3 0.94354
6056.900000000001 0.9420000000000001
6057.5 0.93967
6058.099999999999 0.93896
6058.7 0.94068
6059.400000000001 0.9416800000000001
6060.0 0.93948
6060.599999999999 0.93659
6061.2 0.9383400000000001
6061.799999999999 0.9397199999999999
6062.4 0.93997
6063.0 0.9337000000000001
6063.7 0.93841
6064.299999999999 0.9337399999999999
6064.9 0.9348000000000001
6065.5 0.93663
6066.1 0.93204
6066.7 0.93207
6067.3 0.93769
6068.0 0.92937
6068.6 0.93447
6069.2 0.9326099999999999
6069.8 0.93414
6070.4 0.93105
6071.0 0.93196
6071.599999999999 0.9295
6072.3 0.93144
6072.9 0.93078
6073.5 0.9304600000000001
6074.099999999999 0.93128
6074.700000000001 0.9296899999999999
6075.299999999999 0.93392
6075.900000000001 0.92904
6076.5 0.9305800000000001
6077.1 0.9270900000000001
6077.799999999999 0.92795
6078.400000000001 0.9247799999999999
6079.0 0.92634
6079.6 0.9314199999999999
6080.2 0.92303
6080.8 0.9277299999999999
6081.4 0.92673
6082.0 0.9255200000000001
6082.6 0.9271699999999999
6083.3 0.92669
6083.9 0.92814
6084.5 0.92585
6085.1 0.92448
6085.700000000001 0.9273600000000001
6086.3 0.9277
6086.900000000001 0.92565
6087.5 0.92232
6088.099999999999 0.9273699999999999
6088.7 0.9252800000000001
6089.299999999999 0.92624
6090.0 0.92486
6090.599999999999 0.92658
6091.2 0.92741
6091.799999999999 0.9273
6092.4 0.92491
6093.0 0.92479
6093.6 0.9266800000000001
6094.2 0.9238
6094.8 0.92437
6095.4 0.92607
6096.0 0.9218600000000001
6096.599999999999 0.92671
6097.200000000001 0.92483
6097.799999999999 0.9233499999999999
6098.5 0.92609
6099.099999999999 0.92326
6099.700000000001 0.92806
6100.299999999999 0.9242900000000001
6100.900000000001 0.9272499999999999
6101.5 0.92428
6102.1 0.92515
6102.7 0.92687
6103.3 0.92732
6103.9 0.9255599999999999
6104.5 0.92609
6105.1 0.92955
6105.700000000001 0.92703
6106.3 0.93001
6106.900000000001 0.92739
6107.5 0.92865
6108.099999999999 0.92875
6108.7 0.9281100000000001
6109.299999999999 0.9284399999999999
6109.9 0.93363
6110.5 0.92876
6111.1 0.93086
6111.7 0.9292
6112.3 0.93208
6112.9 0.9333199999999999
6113.5 0.93125
6114.099999999999 0.9307
6114.700000000001 0.93418
6115.299999999999 0.9343600000000001
6115.900000000001 0.9288200000000001
6116.599999999999 0.93351
6117.200000000001 0.93336
6117.799999999999 0.93285
6118.400000000001 0.9360599999999999
6119.0 0.93745
6119.6 0.93702
6120.2 0.9377800000000001
6120.8 0.93391
6121.4 0.93369
6122.0 0.93639
6122.6 0.93491
6123.099999999999 0.93482
6123.7 0.9353
6124.299999999999 0.93973
6124.9 0.93928
6125.5 0.93947
6126.1 0.9412
6126.7 0.9398099999999999
6127.3 0.943
6127.9 0.9443699999999999
6128.6 0.94326
6129.299999999999 0.9465300000000001
6129.9 0.94319
6130.599999999999 0.94757
6131.2 0.9460999999999999
6131.900000000001 0.94659
6132.6 0.94953
6133.200000000001 0.94767
6133.9 0.94946
6134.5 0.9481
6135.2 0.94839
6135.8 0.9507599999999999
6136.5 0.9507099999999999
6137.1 0.94879
6137.799999999999 0.95226
6138.5 0.95288
6139.099999999999 0.95068
6139.8 0.95187
6140.4 0.95565
6141.1 0.9523199999999999
6141.7 0.9544400000000001
6142.4 0.9543
6143.099999999999 0.95479
6143.7 0.95011
6144.400000000001 0.95037
6145.0 0.95384
6145.700000000001 0.95718
6146.3 0.95477
6147.0 0.95382
6147.6 0.95504
6148.3 0.9581399999999999
6149.0 0.95447
6149.6 0.9573999999999999
6150.299999999999 0.9589700000000001
6150.900000000001 0.9541
6151.599999999999 0.9545999999999999
6152.200000000001 0.95675
6152.9 0.96081
6153.5 0.9576399999999999
6154.2 0.95498
6154.8 0.95794
6155.5 0.95761
6156.2 0.96113
6156.799999999999 0.9618800000000001
6157.5 0.95839
6158.099999999999 0.9611799999999999
6158.8 0.9611
6159.400000000001 0.96097
6160.1 0.9600700000000001
6160.700000000001 0.95937
6161.4 0.96146
6162.0 0.95963
6162.7 0.9623999999999999
6163.3 0.9606699999999999
6164.0 0.96336
6164.6 0.9627
6165.299999999999 0.95797
6165.900000000001 0.96053
6166.599999999999 0.95867
6167.3 0.96187
6167.9 0.96271
6168.6 0.96356
6169.2 0.9616
6169.9 0.96311
6170.5 0.9623900000000001
6171.2 0.96312
6171.799999999999 0.96231
6172.5 0.9604
6173.099999999999 0.96282
6173.8 0.96186
6174.400000000001 0.96311
6175.1 0.96236
6175.700000000001 0.96172
6176.4 0.96485
6177.0 0.96492
6177.7 0.96296
6178.3 0.9620799999999999
6179.0 0.95985
6179.6 0.96462
6180.299999999999 0.96341
6180.900000000001 0.96317
6181.599999999999 0.9640900000000001
6182.200000000001 0.96258
6182.9 0.96363
6183.5 0.9575499999999999
6184.2 0.96309
6184.8 0.96088
6185.5 0.96013
6186.1 0.9614100000000001
6186.799999999999 0.9599500000000001
6187.4 0.96418
6188.099999999999 0.96152
6188.7 0.9599
6189.400000000001 0.96392
6190.0 0.95855
6190.700000000001 0.9612
6191.3 0.96309
6192.0 0.96185
6192.6 0.95902
6193.3 0.9573
6193.9 0.9588899999999999
6194.6 0.9566899999999999
6195.2 0.9586
6195.900000000001 0.95959
6196.5 0.9610599999999999
6197.200000000001 0.95746
6197.799999999999 0.9560200000000001
6198.5 0.9593600000000001
6199.099999999999 0.96017
6199.8 0.9593600000000001
6200.4 0.95896
6201.1 0.9575499999999999
6201.7 0.9588599999999999
6202.3 0.9541200000000001
6203.0 0.95759
6203.6 0.9575100000000001
6204.299999999999 0.95856
6204.9 0.95923
6205.599999999999 0.9564100000000001
6206.2 0.95501
6206.900000000001 0.95601
6207.5 0.9545999999999999
6208.200000000001 0.95229
6208.8 0.95298
6209.5 0.9521999999999999
6210.1 0.95678
6210.8 0.95789
6211.4 0.95571
6212.0 0.9504900000000001
6212.7 0.95709
6213.3 0.95088
6214.0 0.9515
6214.6 0.95176
6215.299999999999 0.95391
6215.900000000001 0.9503400000000001
6216.599999999999 0.95074
6217.200000000001 0.9477599999999999
6217.9 0.94697
6218.5 0.94896
6219.099999999999 0.94908
6219.8 0.9496800000000001
6220.4 0.95348
6221.1 0.94786
6221.7 0.94254
6222.4 0.9485899999999999
6223.0 0.93987
6223.7 0.94597
6224.299999999999 0.94538
6224.9 0.9438
6225.599999999999 0.9449599999999999
6226.2 0.9429099999999999
6226.900000000001 0.94441
6227.5 0.9460500000000001
6228.200000000001 0.941
6228.8 0.9424399999999999
6229.400000000001 0.9396
6230.1 0.9393
6230.700000000001 0.93998
6231.4 0.9356
6232.0 0.93982
6232.7 0.9334600000000001
6233.3 0.9353
6233.9 0.93598
6234.6 0.93851
6235.2 0.9378
6235.900000000001 0.9385800000000001
6236.5 0.93561
6237.200000000001 0.93525
6237.799999999999 0.93298
6238.400000000001 0.9317799999999999
6239.099999999999 0.92845
6239.700000000001 0.93255
6240.4 0.92672
6241.0 0.92865
6241.599999999999 0.93411
6242.3 0.93286
6242.9 0.9320900000000001
6243.6 0.92608
6244.2 0.92952
6244.9 0.9274
6245.5 0.92522
6246.1 0.92682
6246.799999999999 0.92357
6247.4 0.92686
6248.099999999999 0.92479
6248.7 0.9235
6249.299999999999 0.9221299999999999
6250.0 0.9211
6250.599999999999 0.9208
6251.3 0.9188500000000001
6251.900000000001 0.9212
6252.5 0.92405
6253.200000000001 0.92211
6253.8 0.91857
6254.5 0.91621
6255.1 0.91472
6255.700000000001 0.91645
6256.4 0.9142100000000001
6257.0 0.91471
6257.6 0.91484
6258.3 0.9148499999999999
6258.9 0.91203
6259.6 0.9117400000000001
6260.2 0.91228
6260.8 0.91281
6261.5 0.91361
6262.1 0.91032
6262.7 0.90931
6263.400000000001 0.912
6264.0 0.9074599999999999
6264.700000000001 0.90901
6265.299999999999 0.9081100000000001
6265.900000000001 0.9035299999999999
6266.599999999999 0.90535
6267.200000000001 0.90601
6267.799999999999 0.9037000000000001
6268.5 0.9050199999999999
6269.099999999999 0.904
6269.8 0.9007599999999999
6270.4 0.9058499999999999
6271.0 0.90156
6271.7 0.9084399999999999
6272.3 0.90681
6272.9 0.90342
6273.6 0.9007999999999999
6274.2 0.89842
6274.8 0.90172
6275.5 0.90337
6276.1 0.89998
6276.799999999999 0.9018
6277.4 0.9027
6278.0 0.89898
6278.7 0.89859
6279.299999999999 0.90069
6279.9 0.89873
6280.599999999999 0.89436
6281.2 0.9006399999999999
6281.799999999999 0.89976
6282.5 0.8967100000000001
6283.099999999999 0.89691
6283.7 0.9003700000000001
6284.400000000001 0.89518
6285.0 0.8972100000000001
6285.599999999999 0.8990900000000001
6286.3 0.9002899999999999
6286.900000000001 0.8970600000000001
6287.5 0.8983599999999999
6288.200000000001 0.89744
6288.8 0.8961
6289.400000000001 0.89435
6290.1 0.89831
6290.700000000001 0.8943300000000001
6291.3 0.89632
6292.0 0.8957299999999999
6292.6 0.8976999999999999
6293.200000000001 0.8959900000000001
6293.9 0.89849
6294.5 0.89601
6295.1 0.89456
6295.8 0.8963800000000001
6296.4 0.89615
6297.0 0.89822
6297.7 0.89735
6298.3 0.89693
6298.9 0.89709
6299.6 0.8970699999999999
6300.2 0.89759
6300.8 0.89717
6301.4 0.8967
6302.1 0.89598
6302.7 0.8969199999999999
6303.3 0.90038
6304.0 0.8996599999999999
6304.6 0.8967400000000001
6305.2 0.89873
6305.900000000001 0.89847
6306.5 0.89587
6307.1 0.8989499999999999
6307.7 0.8995799999999999
6308.400000000001 0.89932
6309.0 0.8982800000000001
6309.6 0.90228
6310.299999999999 0.9013500000000001
6310.900000000001 0.90169
6311.5 0.90373
6312.200000000001 0.9051699999999999
6312.799999999999 0.9006000000000001
6313.400000000001 0.90251
6314.0 0.90238
6314.700000000001 0.9023300000000001
6315.299999999999 0.90137
6315.900000000001 0.9035
6316.599999999999 0.90392
6317.200000000001 0.90781
6317.799999999999 0.9043399999999999
6318.400000000001 0.90309
6319.099999999999 0.9080400000000001
6319.700000000001 0.90794
6320.299999999999 0.9061499999999999
6320.900000000001 0.90422
6321.599999999999 0.90782
6322.200000000001 0.90718
6322.799999999999 0.9084699999999999
6323.5 0.9093300000000001
6324.099999999999 0.9092199999999999
6324.700000000001 0.90878
6325.299999999999 0.90706
6326.0 0.91072
6326.599999999999 0.9102
6327.200000000001 0.91081
6327.799999999999 0.9097799999999999
6328.5 0.91252
6329.099999999999 0.91482
6329.700000000001 0.91375
6330.299999999999 0.91269
6331.0 0.91539
6331.599999999999 0.9167700000000001
6332.200000000001 0.91899
6332.799999999999 0.9189499999999999
6333.5 0.9187000000000001
6334.099999999999 0.92027
6334.700000000001 0.91679
6335.299999999999 0.9211400000000001
6336.0 0.91861
6336.599999999999 0.92092
6337.200000000001 0.92038
6337.799999999999 0.92132
6338.5 0.92184
6339.099999999999 0.92375
6339.700000000001 0.92388
6340.299999999999 0.92786
6341.0 0.9199299999999999
6341.599999999999 0.92672
6342.200000000001 0.92496
6342.799999999999 0.92824
6343.5 0.92352
6344.099999999999 0.9251600000000001
6344.700000000001 0.92561
6345.299999999999 0.9256300000000001
6346.0 0.9260299999999999
6346.599999999999 0.9264600000000001
6347.200000000001 0.92757
6347.799999999999 0.92991
6348.400000000001 0.9333400000000001
6349.099999999999 0.93395
6349.700000000001 0.93145
6350.299999999999 0.93269
6350.900000000001 0.9308
6351.5 0.93235
6352.200000000001 0.94934
6352.799999999999 0.9315399999999999
6353.400000000001 0.93356
6354.0 0.935
6354.700000000001 0.9349299999999999
6355.299999999999 0.93597
6355.900000000001 0.93183
6356.5 0.9343300000000001
6357.1 0.93239
6357.799999999999 0.93396
6358.400000000001 0.9368899999999999
6359.0 0.9348000000000001
6359.6 0.9396899999999999
6360.2 0.93368
6360.900000000001 0.93982
6361.5 0.94081
6362.1 0.9401999999999999
6362.7 0.9382299999999999
6363.3 0.9399
6364.0 0.9400799999999999
6364.6 0.9411499999999999
6365.2 0.9397199999999999
6365.8 0.93674
6366.4 0.94337
6367.1 0.94243
6367.7 0.9411799999999999
6368.3 0.94431
6368.9 0.94132
6369.5 0.94499
6370.1 0.9423900000000001
6370.8 0.94498
6371.4 0.9466899999999999
6372.0 0.94453
6372.6 0.94448
6373.200000000001 0.9461799999999999
6373.8 0.9475
6374.5 0.9435899999999999
6375.1 0.94339
6375.700000000001 0.94538
6376.3 0.94266
6376.900000000001 0.9464400000000001
6377.5 0.9462900000000001
6378.200000000001 0.94708
6378.8 0.9466800000000001
6379.400000000001 0.94479
6380.0 0.94918
6380.599999999999 0.9470999999999999
6381.2 0.94586
6381.900000000001 0.94441
6382.5 0.9466100000000001
6383.099999999999 0.94744
6383.7 0.94723
6384.299999999999 0.94882
6384.9 0.94939
6385.5 0.9444400000000001
6386.2 0.94746
6386.799999999999 0.94601
6387.4 0.94666
6388.0 0.9488800000000001
6388.6 0.94842
6389.2 0.94621
6389.8 0.9491200000000001
6390.700000000001 0.94986
6391.4 0.9503499999999999
6392.0 0.9467300000000001
6392.6 0.94459
6393.3 0.94694
6393.9 0.95139
6394.5 0.9507599999999999
6395.2 0.9445399999999999
6395.8 0.9492400000000001
6396.4 0.9498300000000001
6397.1 0.9489700000000001
6397.7 0.94883
6398.3 0.9462999999999999
6399.0 0.94989
6399.6 0.9506
6400.2 0.94881
6400.900000000001 0.95036
6401.5 0.94503
6402.1 0.9496899999999999
6402.799999999999 0.95137
6403.400000000001 0.9458
6404.0 0.94509
6404.700000000001 0.94877
6405.299999999999 0.9434999999999999
6405.900000000001 0.94829
6406.5 0.94627
6407.200000000001 0.94538
6407.799999999999 0.9494
6408.400000000001 0.94542
6409.099999999999 0.94616
6409.700000000001 0.9442499999999999
6410.299999999999 0.94686
6411.0 0.9470000000000001
6411.599999999999 0.9473
6412.200000000001 0.9492100000000001
6412.9 0.95028
6413.5 0.94857
6414.099999999999 0.9475
6414.700000000001 0.94903
6415.4 0.94556
6416.0 0.94542
6416.599999999999 0.9471599999999999
6417.3 0.9457599999999999
6417.9 0.9472700000000001
6418.5 0.94514
6419.099999999999 0.94699
6419.8 0.9476
6420.4 0.9473999999999999
6421.0 0.94611
6421.7 0.94735
6422.3 0.9489
6422.9 0.9486199999999999
6423.5 0.9472400000000001
6424.2 0.9520000000000001
6424.8 0.94524
6425.4 0.94867
6426.1 0.9448399999999999
6426.7 0.94817
6427.3 0.94423
6427.9 0.9505899999999999
6428.6 0.9491200000000001
6429.2 0.94705
6429.8 0.9491299999999999
6430.4 0.9472400000000001
6431.1 0.94768
6431.7 0.94768
6432.3 0.9499599999999999
6433.0 0.9468099999999999
6433.6 0.9453900000000001
6434.2 0.95042
6434.8 0.9488800000000001
6435.5 0.94744
6436.1 0.9503400000000001
6436.7 0.94746
6437.3 0.95057
6438.0 0.95038
6438.6 0.94745
6439.2 0.94918
6439.8 0.95148
6440.5 0.9539799999999999
6441.1 0.94964
6441.7 0.95097
6442.3 0.9488800000000001
6443.0 0.94825
6443.6 0.9492499999999999
6444.2 0.9514900000000001
6444.8 0.94844
6445.5 0.94851
6446.1 0.95222
6446.7 0.9489700000000001
6447.3 0.95012
6448.0 0.94939
6448.6 0.9530500000000001
6449.2 0.9504699999999999
6449.8 0.9532299999999999
6450.5 0.9488500000000001
6451.1 0.95234
6451.7 0.95443
6452.3 0.9492700000000001
6453.0 0.9556100000000001
6453.6 0.94782
6454.2 0.9518300000000001
6454.8 0.95202
6455.5 0.95285
6456.1 0.95465
6456.7 0.9526
6457.3 0.95434
6457.9 0.95465
6458.6 0.95654
6459.2 0.9520000000000001
6459.8 0.95341
6460.4 0.95261
6461.1 0.9523900000000001
6461.7 0.9551099999999999
6462.3 0.9538899999999999
6462.9 0.95721
6463.5 0.95654
6464.2 0.95452
6464.8 0.9554600000000001
6465.4 0.9534
6466.0 0.9544400000000001
6466.7 0.95709
6467.3 0.9548300000000001
6467.9 0.95377
6468.5 0.95537
6469.099999999999 0.95687
6469.8 0.95538
6470.4 0.95643
6471.0 0.95841
6471.599999999999 0.9564100000000001
6472.200000000001 0.9567700000000001
6472.9 0.9551000000000001
6473.5 0.9565699999999999
6474.099999999999 0.9568300000000001
6474.700000000001 0.95557
6475.299999999999 0.9562
6476.0 0.95463
6476.599999999999 0.95383
6477.200000000001 0.9623999999999999
6477.799999999999 0.96021
6478.400000000001 0.961
6479.099999999999 0.95785
6479.700000000001 0.9615
6480.299999999999 0.9605800000000001
6480.900000000001 0.96369
6481.5 0.95864
6482.200000000001 0.9570099999999999
6482.799999999999 0.95869
6483.400000000001 0.95966
6484.0 0.95941
6484.6 0.96072
6485.2 0.95939
6485.900000000001 0.96348
6486.5 0.96202
6487.1 0.9614100000000001
6487.7 0.96089
6488.3 0.9592100000000001
6489.0 0.9582599999999999
6489.6 0.96166
6490.2 0.96479
6490.8 0.96229
6491.4 0.9609300000000001
6492.0 0.96312
6492.7 0.96306
6493.3 0.9622700000000001
6493.9 0.96241
6494.5 0.9601099999999999
6495.1 0.96449
6495.700000000001 0.96273
6496.4 0.96107
6497.0 0.95852
6497.6 0.96273
6498.200000000001 0.9618099999999999
6498.8 0.96348
6499.400000000001 0.9617
6500.0 0.96312
6500.700000000001 0.9641500000000001
6501.3 0.95922
6501.900000000001 0.9597199999999999
6502.5 0.96467
6503.099999999999 0.96658
6503.7 0.9629300000000001
6504.400000000001 0.9648699999999999
6505.0 0.965
6505.599999999999 0.96623
6506.2 0.96383
6506.799999999999 0.96539
6507.4 0.9610299999999999
6508.0 0.9642700000000001
6508.7 0.9615600000000001
6509.299999999999 0.96269
6509.9 0.96027
6510.5 0.9657899999999999
6511.1 0.9631399999999999
6511.7 0.9641299999999999
6512.3 0.96595
6512.9 0.9614100000000001
6513.6 0.9626300000000001
6514.2 0.9650700000000001
6514.8 0.96404
6515.4 0.96348
6516.0 0.96223
6516.599999999999 0.9653400000000001
6517.200000000001 0.96829
6517.9 0.9629300000000001
6518.5 0.9620799999999999
6519.099999999999 0.96282
6519.700000000001 0.9642700000000001
6520.299999999999 0.9654900000000001
6520.900000000001 0.9630200000000001
6521.5 0.9611
6522.1 0.9655800000000001
6522.7 0.9626600000000001
6523.400000000001 0.9606699999999999
6524.0 0.96155
6524.6 0.96358
6525.2 0.9649599999999999
6525.8 0.9655
6526.4 0.96191
6527.0 0.9671299999999999
6527.6 0.96182
6528.200000000001 0.96371
6528.9 0.96108
6529.5 0.96375
6530.1 0.96421
6530.700000000001 0.9671299999999999
6531.3 0.96414
6531.900000000001 0.96206
6532.5 0.96229
6533.099999999999 0.9667600000000001
6533.7 0.96408
6534.299999999999 0.96038
6535.0 0.9629300000000001
6535.599999999999 0.96027
6536.2 0.96492
6536.799999999999 0.96301
6537.4 0.96548
6538.0 0.9661
6538.6 0.96686
6539.2 0.9662900000000001
6539.8 0.95953
6540.4 0.96329
6541.0 0.9658100000000001
6541.599999999999 0.9664400000000001
6542.3 0.96207
6542.9 0.9649
6543.5 0.9640099999999999
6544.099999999999 0.96576
6544.700000000001 0.9662099999999999
6545.299999999999 0.9665600000000001
6545.900000000001 0.96539
6546.5 0.95949
6547.1 0.96575
6547.7 0.9649
6548.3 0.9660299999999999
6548.9 0.9674200000000001
6549.5 0.9650799999999999
6550.1 0.96768
6550.700000000001 0.96455
6551.4 0.9643200000000001
6552.0 0.9639
6552.6 0.96283
6553.200000000001 0.9652
6553.8 0.96613
6554.400000000001 0.96712
6555.0 0.9645900000000001
6555.599999999999 0.95939
6556.2 0.96559
6556.799999999999 0.96348
6557.4 0.96557
6558.0 0.96608
6558.6 0.96378
6559.2 0.9665699999999999
6559.8 0.9626699999999999
6560.4 0.96479
6561.0 0.9640000000000001
6561.599999999999 0.9639
6562.200000000001 0.9639
6562.799999999999 0.9669199999999999
6563.400000000001 0.9656600000000001
6564.099999999999 0.96462
6564.700000000001 0.9637699999999999
6565.299999999999 0.96289
6565.900000000001 0.96257
6566.5 0.96462
6567.1 0.9633499999999999
6567.7 0.9655
6568.3 0.96077
6568.9 0.9655
6569.5 0.96429
6570.1 0.9676600000000001
6570.700000000001 0.96698
6571.3 0.9670799999999999
6571.900000000001 0.9649599999999999
6572.5 0.9686100000000001
6573.099999999999 0.9665699999999999
6573.7 0.96816
6574.299999999999 0.96665
6574.9 0.96551
6575.5 0.96358
6576.1 0.9685299999999999
6576.7 0.96673
6577.3 0.965
6577.9 0.9633700000000001
6578.5 0.96575
6579.099999999999 0.96463
6579.700000000001 0.96817
6580.299999999999 0.96583
6580.900000000001 0.96482
6581.5 0.96762
6582.1 0.96504
6582.7 0.96879
6583.3 0.96422
6583.9 0.96693
6584.5 0.9670399999999999
6585.1 0.96481
6585.700000000001 0.96627
6586.3 0.9656999999999999
6586.900000000001 0.96707
6587.5 0.96768
6588.099999999999 0.96637
6588.7 0.9680500000000001
6589.299999999999 0.96639
6589.9 0.96661
6590.5 0.9677
6591.1 0.96829
6591.7 0.96787
6592.3 0.96563
6592.9 0.96406
6593.5 0.96533
6594.099999999999 0.96599
6594.700000000001 0.96592
6595.299999999999 0.96147
6595.900000000001 0.96399
6596.5 0.96563
6597.1 0.96809
6597.7 0.9697499999999999
6598.200000000001 0.96419
6598.8 0.96674
6599.400000000001 0.9645199999999999
6600.0 0.96557
6600.599999999999 0.96875
6601.2 0.96399
6601.799999999999 0.9660599999999999
6602.4 0.96548
6603.0 0.9699500000000001
6603.6 0.96465
6604.2 0.96556
6604.8 0.9675
6605.4 0.96698
6606.0 0.9652200000000001
6606.599999999999 0.96682
6607.200000000001 0.96485
6607.799999999999 0.96411
6608.400000000001 0.9653499999999999
6609.0 0.96571
6609.6 0.96777
6610.2 0.96081
6610.700000000001 0.96548
6611.3 0.96747
6611.900000000001 0.96336
6612.5 0.96476
6613.099999999999 0.96543
6613.7 0.9667100000000001
6614.299999999999 0.9631000000000001
6614.9 0.96492
6615.5 0.96312
6616.1 0.96505
6616.7 0.9654600000000001
6617.3 0.96686
6617.9 0.9642499999999999
6618.5 0.96569
6619.0 0.96518
6619.6 0.96475
6620.2 0.96237
6620.8 0.96655
6621.4 0.9624299999999999
6622.0 0.96257
6622.6 0.9639
6623.200000000001 0.9636100000000001
6623.8 0.9639
6624.400000000001 0.9626
6625.0 0.96232
6625.599999999999 0.96541
6626.1 0.9662900000000001
6626.7 0.96615
6627.3 0.96809
6627.9 0.9656
6628.5 0.9671500000000001
6629.099999999999 0.96502
6629.700000000001 0.9645699999999999
6630.299999999999 0.96468
6630.900000000001 0.9652299999999999
6631.4 0.9644400000000001
6632.0 0.96363
6632.6 0.96328
6633.200000000001 0.96433
6633.8 0.96136
6634.400000000001 0.9659300000000001
6635.0 0.96474
6635.599999999999 0.96309
6636.2 0.96462
6636.7 0.96327
6637.3 0.96441
6637.9 0.9622799999999999
6638.5 0.96313
6639.099999999999 0.96076
6639.700000000001 0.96369
6640.299999999999 0.9629800000000001
6640.900000000001 0.9654200000000001
6641.4 0.9641299999999999
6642.0 0.96345
6642.6 0.9619199999999999
6643.200000000001 0.9596800000000001
6643.8 0.96407
6644.400000000001 0.96475
6645.0 0.96619
6645.599999999999 0.96277
6646.1 0.9648300000000001
6646.7 0.96048
6647.3 0.9619
6647.9 0.9666899999999999
6648.5 0.96199
6649.099999999999 0.96325
6649.700000000001 0.9626600000000001
6650.2 0.9615600000000001
6650.8 0.9643600000000001
6651.4 0.96356
6652.0 0.95953
6652.6 0.95958
6653.200000000001 0.96203
6653.7 0.9621599999999999
6654.299999999999 0.9645999999999999
6654.9 0.96193
6655.5 0.96257
6656.1 0.96654
6656.7 0.9604600000000001
6657.200000000001 0.96557
6657.799999999999 0.9601999999999999
6658.400000000001 0.96257
6659.0 0.9626
6659.6 0.96404
6660.2 0.9617100000000001
6660.700000000001 0.9630200000000001
6661.3 0.96092
6661.900000000001 0.9633499999999999
6662.5 0.96206
6663.099999999999 0.96343
6663.7 0.9603700000000001
6664.2 0.9613200000000001
6664.8 0.96032
6665.4 0.95882
6666.0 0.9633400000000001
6666.599999999999 0.9590099999999999
6667.1 0.96686
6667.7 0.96285
6668.3 0.96147
6668.9 0.96041
6669.5 0.95975
6670.0 0.9637399999999999
6670.599999999999 0.96308
6671.2 0.9662099999999999
6671.799999999999 0.96277
6672.4 0.9630200000000001
6672.9 0.96375
6673.5 0.96504
6674.099999999999 0.9607899999999999
6674.700000000001 0.9624299999999999
6675.299999999999 0.96244
6675.8 0.96348
6676.4 0.9618099999999999
6677.0 0.96344
6677.6 0.96406
6678.200000000001 0.95865
6678.7 0.9599
6679.299999999999 0.9632200000000001
6679.9 0.9638599999999999
6680.5 0.9645199999999999
6681.0 0.96125
6681.599999999999 0.96681
6682.200000000001 0.9617
6682.799999999999 0.9618000000000001
6683.400000000001 0.9637600000000001
6683.9 0.95931
6684.5 0.96295
6685.1 0.9599599999999999
6685.700000000001 0.96336
6686.2 0.9623999999999999
6686.799999999999 0.9636199999999999
6687.4 0.96294
6688.0 0.96209
6688.5 0.96221
6689.099999999999 0.96244
6689.700000000001 0.96081
6690.299999999999 0.9667600000000001
6690.8 0.9619199999999999
6691.4 0.96681
6692.0 0.96152
6692.6 0.9607899999999999
6693.099999999999 0.96824
6693.7 0.96277
6694.299999999999 0.9619
6694.9 0.96055
6695.4 0.96053
6696.0 0.96529
6696.599999999999 0.96348
6697.200000000001 0.96619
6697.7 0.9629800000000001
6698.3 0.96152
6698.9 0.96493
6699.5 0.9630500000000001
6700.0 0.96247
6700.599999999999 0.96458
6701.2 0.9648300000000001
6701.799999999999 0.96639
6702.3 0.9615
6702.9 0.96356
6703.5 0.96172
6704.0 0.9655
6704.6 0.96366
6705.2 0.9659300000000001
6705.8 0.96615
6706.3 0.96416
6706.900000000001 0.9669599999999999
6707.5 0.96237
6708.0 0.96131
6708.6 0.9648300000000001
6709.2 0.96589
6709.8 0.9650799999999999
6710.299999999999 0.96404
6710.900000000001 0.96613
6711.5 0.9629800000000001
6712.0 0.9640099999999999
6712.6 0.9618800000000001
6713.200000000001 0.96224
6713.7 0.9645999999999999
6714.299999999999 0.96307
6714.9 0.9662099999999999
6715.5 0.9664
6716.0 0.9608
6716.599999999999 0.9662099999999999
6717.200000000001 0.96195
6717.7 0.96556
6718.3 0.96539
6718.9 0.95993
6719.400000000001 0.96466
6720.0 0.96355
6720.599999999999 0.96426
6721.1 0.96329
6721.7 0.9632
6722.3 0.9627500000000001
6722.799999999999 0.96301
6723.400000000001 0.9627899999999999
6724.0 0.9641500000000001
6724.5 0.9626399999999999
6725.1 0.9633799999999999
6725.700000000001 0.9595
6726.2 0.96235
6726.799999999999 0.96453
6727.4 0.96116
6727.9 0.9617
6728.5 0.96355
6729.099999999999 0.96647
6729.6 0.96343
6730.2 0.96556
6730.8 0.9633400000000001
6731.3 0.95939
6731.900000000001 0.9618300000000001
6732.5 0.9613700000000001
6733.0 0.96463
6733.6 0.96045
6734.2 0.96187
6734.700000000001 0.9616899999999999
6735.299999999999 0.9606699999999999
6735.8 0.9595999999999999
6736.4 0.9592
6737.0 0.95864
6737.5 0.96297
6738.099999999999 0.9593600000000001
6738.7 0.96194
6739.2 0.96024
6739.8 0.95914
6740.4 0.95899
6740.900000000001 0.9627800000000001
6741.5 0.9604600000000001
6742.0 0.95878
6742.6 0.9609399999999999
6743.200000000001 0.9577
6743.7 0.96182
6744.299999999999 0.96363
6744.8 0.96503
6745.4 0.9602299999999999
6746.0 0.9566899999999999
6746.5 0.96119
6747.1 0.9593200000000001
6747.7 0.95953
6748.200000000001 0.96111
6748.8 0.9588599999999999
6749.299999999999 0.96095
6749.9 0.9575499999999999
6750.5 0.96044
6751.0 0.95923
6751.599999999999 0.95911
6752.1 0.95973
6752.7 0.95864
6753.3 0.95545
6753.8 0.95773
6754.400000000001 0.96044
6754.9 0.95783
6755.5 0.95993
6756.0 0.9554900000000001
6756.599999999999 0.9591299999999999
6757.200000000001 0.95845
6757.7 0.95742
6758.3 0.9558599999999999
6758.8 0.95757
6759.400000000001 0.9605
6760.0 0.95612
6760.5 0.9607899999999999
6761.1 0.95485
6761.599999999999 0.9571200000000001
6762.200000000001 0.95895
6762.7 0.95813
6763.3 0.95747
6763.9 0.96139
6764.400000000001 0.9550799999999999
6765.0 0.95975
6765.5 0.95265
6766.1 0.9560599999999999
6766.599999999999 0.9571599999999999
6767.200000000001 0.9542
6767.7 0.9579099999999999
6768.3 0.95648
6768.9 0.95518
6769.400000000001 0.95387
6770.0 0.95673
6770.5 0.95585
6771.1 0.95674
6771.599999999999 0.9556999999999999
6772.200000000001 0.95474
6772.7 0.95627
6773.3 0.9572499999999999
6773.8 0.95601
6774.400000000001 0.95748
6774.9 0.95502
6775.5 0.95571
6776.1 0.9538599999999999
6776.599999999999 0.95761
6777.200000000001 0.95324
6777.7 0.95343
6778.3 0.95321
6778.8 0.95415
6779.400000000001 0.9539799999999999
6779.9 0.95229
6780.5 0.9553
6781.0 0.9516100000000001
6781.599999999999 0.95557
6782.1 0.9602299999999999
6782.7 0.9535800000000001
6783.200000000001 0.95569
6783.8 0.95172
6784.299999999999 0.9556699999999999
6784.9 0.9530299999999999
6785.4 0.95202
6786.0 0.9515300000000001
6786.5 0.95623
6787.1 0.95394
6787.6 0.95654
6788.200000000001 0.9527100000000001
6788.7 0.95284
6789.299999999999 0.95353
6789.8 0.95325
6790.4 0.95197
6790.900000000001 0.9544799999999999
6791.5 0.95467
6792.0 0.9554300000000001
6792.6 0.95415
6793.099999999999 0.95328
6793.7 0.9526699999999999
6794.2 0.95304
6794.8 0.95274
6795.299999999999 0.95004
6795.900000000001 0.94997
6796.4 0.95416
6796.900000000001 0.9556699999999999
6797.5 0.9520099999999999
6798.0 0.95172
6798.6 0.9526399999999999
6799.099999999999 0.95498
6799.700000000001 0.95282
6800.2 0.95301
6800.8 0.95254
6801.3 0.95376
6801.900000000001 0.9518899999999999
6802.4 0.9534900000000001
6803.0 0.95729
6803.5 0.95254
6804.0 0.95234
6804.6 0.95639
6805.1 0.95247
6805.700000000001 0.9533
6806.2 0.9515600000000001
6806.799999999999 0.95525
6807.3 0.95099
6807.9 0.9515
6808.400000000001 0.95375
6808.9 0.95513
6809.5 0.9510599999999999
6810.0 0.95143
6810.599999999999 0.95394
6811.1 0.95682
6811.7 0.9498399999999999
6812.200000000001 0.95569
6812.7 0.95563
6813.3 0.9546899999999999
6813.8 0.95816
6814.400000000001 0.95288
6814.9 0.95458
6815.4 0.95036
6816.0 0.95441
6816.5 0.9539
6817.1 0.9522799999999999
6817.6 0.9560200000000001
6818.200000000001 0.9536
6818.7 0.9531999999999999
6819.2 0.95667
6819.8 0.95492
6820.299999999999 0.95439
6820.900000000001 0.9548000000000001
6821.4 0.95367
6821.900000000001 0.95429
6822.5 0.9535399999999999
6823.0 0.9553400000000001
6823.6 0.9529000000000001
6824.099999999999 0.95652
6824.6 0.95309
6825.2 0.9546800000000001
6825.700000000001 0.9543600000000001
6826.2 0.95485
6826.799999999999 0.95935
6827.3 0.9554900000000001
6827.9 0.95241
6828.400000000001 0.9548300000000001
6828.9 0.95364
6829.5 0.9554300000000001
6830.0 0.95703
6830.5 0.9560500000000001
6831.1 0.95699
6831.599999999999 0.9559399999999999
6832.200000000001 0.95443
6832.7 0.95474
6833.200000000001 0.95479
6833.8 0.95714
6834.299999999999 0.9577899999999999
6834.8 0.95332
6835.4 0.95565
6835.900000000001 0.95604
6836.4 0.95623
6837.0 0.95609
6837.5 0.95643
6838.0 0.95655
6838.6 0.9578
6839.099999999999 0.9595
6839.6 0.9565
6840.2 0.95369
6840.700000000001 0.95726
6841.3 0.9547100000000001
6841.799999999999 0.96119
6842.3 0.9578700000000001
6842.9 0.9622499999999999
6843.400000000001 0.96026
6843.9 0.9570099999999999
6844.400000000001 0.95697
6845.0 0.9579300000000001
6845.5 0.96
6846.0 0.9600700000000001
6846.599999999999 0.95923
6847.1 0.95794
6847.6 0.9575199999999999
6848.200000000001 0.9614100000000001
6848.7 0.95953
6849.2 0.9606999999999999
6849.8 0.95798
6850.299999999999 0.96316
6850.8 0.95939
6851.4 0.95832
6851.900000000001 0.9561
6852.4 0.95796
6852.9 0.96017
6853.5 0.9591299999999999
6854.0 0.9632999999999999
6854.5 0.9644499999999999
6855.1 0.9618099999999999
6855.599999999999 0.9587399999999999
6856.1 0.96236
6856.7 0.96024
6857.200000000001 0.95914
6857.7 0.9579099999999999
6858.200000000001 0.95939
6858.8 0.96055
6859.299999999999 0.95937
6859.8 0.9581399999999999
6860.4 0.96088
6860.900000000001 0.9623999999999999
6861.4 0.96222
6861.900000000001 0.95869
6862.5 0.96628
6863.0 0.9590900000000001
6863.5 0.96095
6864.0 0.95871
6864.6 0.96312
6865.1 0.96306
6865.599999999999 0.96178
6866.1 0.96463
6866.5 0.96001
6867.1 0.96245
6867.7 0.95967
6868.3 0.96226
6868.9 0.9633799999999999
6869.400000000001 0.96299
6870.0 0.96038
6870.599999999999 0.96119
6871.2 0.9595999999999999
6871.799999999999 0.9599899999999999
6872.4 0.9616899999999999
6872.9 0.9621299999999999
6873.5 0.96123
6874.099999999999 0.9632200000000001
6874.700000000001 0.9632999999999999
6875.299999999999 0.9644799999999999
6875.900000000001 0.96084
6876.4 0.96437
6877.0 0.96315
6877.6 0.96312
6878.200000000001 0.9606399999999999
6878.8 0.96354
6879.400000000001 0.9675100000000001
6879.9 0.9644499999999999
6880.5 0.95871
6881.1 0.9620799999999999
6881.7 0.96431
6882.3 0.961
6882.9 0.96585
6883.400000000001 0.9656100000000001
6884.0 0.96057
6884.6 0.96327
6885.2 0.96316
6885.8 0.9651900000000001
6886.4 0.96403
6886.900000000001 0.96417
6887.5 0.96454
6888.099999999999 0.96311
6888.7 0.9621500000000001
6889.299999999999 0.96479
6889.8 0.96358
6890.4 0.96636
6891.0 0.9656
6891.599999999999 0.96257
6892.200000000001 0.9615
6892.799999999999 0.96439
6893.3 0.96521
6893.9 0.96648
6894.5 0.9613200000000001
6895.1 0.96352
6895.700000000001 0.96845
6896.2 0.9614
6896.799999999999 0.96552
6897.4 0.96348
6898.0 0.96501
6898.6 0.96485
6899.099999999999 0.9662000000000001
6899.700000000001 0.96407
6900.299999999999 0.96467
6900.900000000001 0.9693600000000001
6901.4 0.9667
6902.0 0.9645600000000001
6902.6 0.9645699999999999
6903.200000000001 0.97089
6903.8 0.96309
6904.299999999999 0.9662999999999999
6904.9 0.96447
6905.5 0.96675
6906.1 0.96391
6906.7 0.9638
6907.200000000001 0.96729
6907.799999999999 0.9676699999999999
6908.400000000001 0.96714
6909.0 0.96938
6909.5 0.9643600000000001
6910.1 0.96639
6910.700000000001 0.96699
6911.3 0.96833
6911.900000000001 0.96714
6912.4 0.96685
6913.0 0.96759
6913.6 0.96551
6914.2 0.96616
6914.700000000001 0.96719
6915.299999999999 0.96714
6915.900000000001 0.9642700000000001
6916.5 0.9669599999999999
6917.0 0.96559
6917.6 0.9611799999999999
6918.200000000001 0.96848
6918.8 0.96638
6919.299999999999 0.9675
6919.9 0.96625
6920.5 0.97056
6921.1 0.96921
6921.599999999999 0.96929
6922.200000000001 0.9672799999999999
6922.799999999999 0.96698
6923.400000000001 0.97272
6923.9 0.9658199999999999
6924.5 0.96711
6925.1 0.9682999999999999
6925.700000000001 0.9675400000000001
6926.2 0.97013
6926.799999999999 0.9665600000000001
6927.4 0.96613
6928.0 0.9662099999999999
6928.5 0.96393
6929.099999999999 0.96638
6929.700000000001 0.9661700000000001
6930.299999999999 0.9662999999999999
6930.8 0.96695
6931.4 0.96863
6932.0 0.96899
6932.6 0.9670300000000001
6933.099999999999 0.96737
6933.7 0.9640900000000001
6934.299999999999 0.9687699999999999
6934.8 0.96474
6935.4 0.96925
6936.0 0.97085
6936.599999999999 0.9683499999999999
6937.1 0.9664100000000001
6937.7 0.9669199999999999
6938.3 0.96836
6938.9 0.96748
6939.400000000001 0.96288
6940.0 0.96967
6940.599999999999 0.96819
6941.1 0.96737
6941.7 0.9648399999999999
6942.3 0.96733
6942.9 0.96902
6943.400000000001 0.9641
6944.0 0.96466
6944.6 0.9667
6945.1 0.9626699999999999
6945.700000000001 0.9651099999999999
6946.3 0.9656699999999999
6946.799999999999 0.9656399999999999
6947.4 0.9671299999999999
6948.0 0.9659099999999999
6948.6 0.96608
6949.099999999999 0.96726
6949.700000000001 0.97075
6950.299999999999 0.96624
6950.8 0.96738
6951.4 0.96828
6952.0 0.96748
6952.5 0.96771
6953.099999999999 0.96411
6953.7 0.96702
6954.299999999999 0.9670000000000001
6954.8 0.9658
6955.4 0.9638599999999999
6956.0 0.9619199999999999
6956.5 0.9658599999999999
6957.1 0.96939
6957.7 0.9703
6958.200000000001 0.96643
6958.8 0.96794
6959.400000000001 0.96949
6959.9 0.96525
6960.5 0.96494
6961.1 0.96613
6961.599999999999 0.9665300000000001
6962.200000000001 0.96674
6962.799999999999 0.9645900000000001
6963.3 0.9640099999999999
6963.9 0.96687
6964.5 0.96643
6965.0 0.97045
6965.599999999999 0.96694
6966.2 0.9677899999999999
6966.7 0.96485
6967.3 0.96884
6967.9 0.96695
6968.400000000001 0.96883
6969.0 0.9630200000000001
6969.6 0.96732
6970.1 0.96382
6970.700000000001 0.9638599999999999
6971.3 0.96744
6971.799999999999 0.96584
6972.4 0.9663299999999999
6973.0 0.96686
6973.5 0.97077
6974.099999999999 0.96235
6974.6 0.9672700000000001
6975.2 0.96681
6975.8 0.96536
6976.3 0.96481
6976.900000000001 0.9653700000000001
6977.5 0.9610299999999999
6978.0 0.9647
6978.6 0.96514
6979.2 0.9649500000000001
6979.700000000001 0.9645199999999999
6980.299999999999 0.96856
6980.8 0.9664100000000001
6981.4 0.9664100000000001
6982.0 0.9652200000000001
6982.5 0.96654
6983.099999999999 0.96628
6983.7 0.96577
6984.2 0.96443
6984.8 0.9655800000000001
6985.299999999999 0.9631000000000001
6985.900000000001 0.96449
6986.5 0.96417
6987.0 0.96726
6987.6 0.9659
6988.200000000001 0.96623
6988.7 0.9659
6989.299999999999 0.96769
6989.8 0.96707
6990.4 0.9653
6991.0 0.9659099999999999
6991.5 0.9672700000000001
6992.1 0.9664499999999999
6992.6 0.9665
6993.200000000001 0.96642
6993.8 0.96466
6994.299999999999 0.96665
6994.9 0.96235
6995.4 0.96697
6996.0 0.96473
6996.599999999999 0.96611
6997.1 0.9626
6997.7 0.9678100000000001
6998.200000000001 0.96343
6998.8 0.9633700000000001
6999.400000000001 0.96637
6999.9 0.968
7000.5 0.96481
7001.0 0.9665600000000001
7001.599999999999 0.96319
7002.200000000001 0.9634
7002.7 0.9629300000000001
7003.3 0.966
7003.8 0.968
7004.400000000001 0.9632
7004.9 0.96509
7005.5 0.96628
7006.1 0.96831
7006.599999999999 0.96191
7007.200000000001 0.96595
7007.7 0.96177
7008.3 0.96247
7008.8 0.9620000000000001
7009.400000000001 0.96394
7010.0 0.96654
7010.5 0.96166
7011.1 0.96428
7011.599999999999 0.96695
7012.200000000001 0.9616800000000001
7012.7 0.96516
7013.3 0.96514
7013.8 0.96327
7014.400000000001 0.96321
7015.0 0.9619
7015.5 0.96383
7016.1 0.9588800000000001
7016.599999999999 0.96429
7017.200000000001 0.96044
7017.7 0.96428
7018.3 0.9636199999999999
7018.8 0.9632200000000001
7019.400000000001 0.9648399999999999
7019.9 0.96316
7020.5 0.96422
7021.1 0.96433
7021.599999999999 0.96261
7022.200000000001 0.9632599999999999
7022.7 0.9615699999999999
7023.3 0.9618099999999999
7023.8 0.9630299999999999
7024.400000000001 0.9657899999999999
7024.9 0.9634
7025.5 0.96541
7026.0 0.96613
7026.599999999999 0.96021
7027.1 0.9656100000000001
7027.7 0.9619
7028.200000000001 0.96346
7028.8 0.9625
7029.400000000001 0.96597
7029.9 0.96199
7030.5 0.96548
7031.0 0.9618800000000001
7031.599999999999 0.96242
7032.1 0.96324
7032.7 0.9650799999999999
7033.200000000001 0.96104
7033.8 0.96343
7034.299999999999 0.9626399999999999
7034.9 0.96514
7035.4 0.9601900000000001
7036.0 0.9660599999999999
7036.5 0.9629300000000001
7037.1 0.96317
7037.6 0.96493
7038.200000000001 0.9598
7038.7 0.96489
7039.299999999999 0.96021
7039.8 0.9658199999999999
7040.4 0.96301
7040.900000000001 0.9625199999999999
7041.5 0.96312
7042.0 0.96308
7042.6 0.9643
7043.099999999999 0.96256
7043.7 0.9644499999999999
7044.2 0.96276
7044.8 0.96222
7045.299999999999 0.96327
7045.900000000001 0.96623
7046.4 0.9626300000000001
7046.900000000001 0.96482
7047.5 0.9660500000000001
7048.0 0.9643600000000001
7048.6 0.9632299999999999
7049.099999999999 0.96085
7049.700000000001 0.9608199999999999
7050.2 0.96488
7050.8 0.96149
7051.3 0.9658599999999999
7051.900000000001 0.96327
7052.4 0.96197
7053.0 0.9646899999999999
7053.5 0.96152
7054.099999999999 0.9655400000000001
7054.6 0.96222
7055.1 0.9667
7055.700000000001 0.96297
7056.2 0.96623
7056.799999999999 0.96477
7057.3 0.96601
7057.9 0.96214
7058.400000000001 0.96339
7059.0 0.96451
7059.5 0.9645900000000001
7060.1 0.96615
7060.599999999999 0.9671500000000001
7061.1 0.96584
7061.7 0.9642499999999999
7062.200000000001 0.96647
7062.799999999999 0.96649
7063.3 0.96569
7063.9 0.9638100000000001
7064.400000000001 0.96718
7064.9 0.9637600000000001
7065.5 0.9606
7066.0 0.96991
7066.599999999999 0.9673999999999999
7067.1 0.96426
7067.7 0.9665900000000001
7068.200000000001 0.9648699999999999
7068.7 0.96776
7069.299999999999 0.96515
7069.8 0.96615
7070.4 0.96529
7070.900000000001 0.96538
7071.5 0.9634699999999999
7072.0 0.9642700000000001
7072.5 0.9638599999999999
7073.099999999999 0.96792
7073.6 0.96299
7074.2 0.97119
7074.700000000001 0.96587
7075.2 0.9661
7075.8 0.96655
7076.3 0.96501
7076.900000000001 0.9629000000000001
7077.4 0.96732
7077.9 0.96648
7078.5 0.9663299999999999
7079.0 0.9649
7079.6 0.9691
7080.1 0.96614
7080.599999999999 0.96446
7081.2 0.96585
7081.7 0.9627
7082.3 0.9660500000000001
7082.799999999999 0.9651000000000001
7083.3 0.9660599999999999
7083.9 0.9669599999999999
7084.400000000001 0.9627500000000001
7085.0 0.96493
7085.5 0.96698
7086.0 0.96773
7086.599999999999 0.96313
7087.1 0.9626399999999999
7087.6 0.96614
7088.200000000001 0.96604
7088.7 0.96351
7089.299999999999 0.96761
7089.8 0.9613200000000001
7090.299999999999 0.96173
7090.900000000001 0.9592
7091.4 0.95962
7091.900000000001 0.96229
7092.5 0.96069
7093.0 0.95947
7093.5 0.95682
7094.099999999999 0.96149
7094.6 0.95808
7095.2 0.95794
7095.700000000001 0.95883
7096.2 0.95824
7096.799999999999 0.95672
7097.3 0.95439
7097.799999999999 0.9573999999999999
7098.400000000001 0.96018
7098.9 0.95646
7099.400000000001 0.95441
7100.0 0.9546899999999999
7100.5 0.95718
7101.0 0.9514400000000001
7101.599999999999 0.95599
7102.1 0.9499599999999999
7102.6 0.95099
7103.200000000001 0.95317
7103.7 0.95258
7104.2 0.9506100000000001
7104.8 0.9470399999999999
7105.299999999999 0.94697
7105.8 0.9434600000000001
7106.4 0.94868
7106.900000000001 0.9458
7107.4 0.94266
7108.0 0.9418500000000001
7108.5 0.94155
7109.0 0.9422799999999999
7109.6 0.93672
7110.1 0.93965
7110.599999999999 0.9389400000000001
7111.1 0.93731
7111.7 0.93586
7112.200000000001 0.9361
7112.7 0.93651
7113.3 0.93255
7113.8 0.9333199999999999
7114.299999999999 0.93105
7114.9 0.9303400000000001
7115.4 0.92651
7115.900000000001 0.92814
7116.5 0.92376
7117.0 0.92581
7117.5 0.92368
7118.0 0.9224800000000001
7118.6 0.9225
7119.099999999999 0.92132
7119.6 0.91886
7120.2 0.91842
7120.700000000001 0.9129200000000001
7121.2 0.9157899999999999
7121.7 0.91242
7122.3 0.91062
7122.799999999999 0.90657
7123.3 0.90877
7123.9 0.9096899999999999
7124.400000000001 0.90499
7124.9 0.9036
7125.4 0.9058799999999999
7126.0 0.90354
7126.5 0.89976
7127.0 0.90091
7127.5 0.89925
7128.099999999999 0.89822
7128.6 0.89658
7129.099999999999 0.8933
7129.6 0.89324
7130.2 0.89303
7130.700000000001 0.89069
7131.2 0.8868300000000001
7131.7 0.88488
7132.3 0.8873099999999999
7132.799999999999 0.88388
7133.3 0.8825
7133.8 0.88074
7134.400000000001 0.87424
7134.9 0.87715
7135.4 0.87657
7135.900000000001 0.87253
7136.5 0.8719199999999999
7137.0 0.8698699999999999
7137.5 0.8685200000000001
7138.0 0.86554
7138.6 0.8671
7139.099999999999 0.8649800000000001
7139.6 0.8627400000000001
7140.1 0.8631399999999999
7140.700000000001 0.8605800000000001
7141.2 0.8572799999999999
7141.7 0.85693
7142.200000000001 0.8552
7142.7 0.85406
7143.3 0.8563200000000001
7143.8 0.84955
7144.299999999999 0.85174
7144.8 0.8480800000000001
7145.4 0.84423
7145.900000000001 0.84313
7146.4 0.84408
7146.900000000001 0.8436499999999999
7147.4 0.83772
7148.0 0.83607
7148.5 0.8384
7149.0 0.83383
7149.5 0.83354
7150.0 0.83148
7150.599999999999 0.83244
7151.1 0.82955
7151.599999999999 0.82624
7152.1 0.82533
7152.6 0.82441
7153.200000000001 0.8211499999999999
7153.7 0.8211400000000001
7154.2 0.8185899999999999
7154.700000000001 0.8165
7155.2 0.81774
7155.8 0.81529
7156.3 0.81294
7156.799999999999 0.81596
7157.3 0.81253
7157.799999999999 0.8080200000000001
7158.3 0.8090600000000001
7158.9 0.80475
7159.400000000001 0.80542
7159.9 0.8078799999999999
7160.4 0.8053199999999999
7160.900000000001 0.80472
7161.4 0.8029999999999999
7162.0 0.80334
7162.5 0.79878
7163.0 0.7954000000000001
7163.5 0.79448
7164.0 0.79549
7164.5 0.79464
7165.1 0.79244
7165.599999999999 0.7897799999999999
7166.1 0.7910699999999999
7166.599999999999 0.78983
7167.1 0.78495
7167.6 0.7889
7168.200000000001 0.7856000000000001
7168.7 0.78228
7169.2 0.78066
7169.700000000001 0.7799299999999999
7170.2 0.77801
7170.700000000001 0.77661
7171.2 0.77724
7171.7 0.77795
7172.3 0.7755500000000001
7172.799999999999 0.77507
7173.3 0.77453
7173.8 0.7686
7174.299999999999 0.76642
7174.8 0.7670999999999999
7175.299999999999 0.76485
7175.900000000001 0.76036
7176.4 0.76345
7176.900000000001 0.7613599999999999
7177.4 0.75878
7177.9 0.75741
7178.400000000001 0.75426
7178.9 0.75548
7179.400000000001 0.7526600000000001
7179.9 0.7528900000000001
7180.5 0.7497
7181.0 0.74532
7181.5 0.74602
7182.0 0.74454
7182.5 0.74125
7183.0 0.7397400000000001
7183.5 0.73961
7184.0 0.73571
7184.5 0.73009
7185.0 0.73542
7185.599999999999 0.7287699999999999
7186.1 0.7260500000000001
7186.599999999999 0.72336
7187.1 0.7218899999999999
7187.6 0.71856
7188.099999999999 0.71587
7188.6 0.7142700000000001
7189.099999999999 0.7111
7189.6 0.70882
7190.1 0.70482
7190.599999999999 0.7040900000000001
7191.2 0.70013
7191.7 0.69589
7192.200000000001 0.6937000000000001
7192.7 0.6918300000000001
7193.200000000001 0.68732
7193.7 0.68381
7194.2 0.67687
7194.700000000001 0.6738299999999999
7195.2 0.67051
7195.700000000001 0.6662
7196.2 0.6638200000000001
7196.7 0.65924
7197.200000000001 0.65557
7197.7 0.65061
7198.200000000001 0.6453700000000001
7198.7 0.64161
7199.299999999999 0.6366499999999999
7199.8 0.63637
7200.299999999999 0.62947
7200.8 0.6227900000000001
7201.3 0.61671
7201.799999999999 0.6138
7202.3 0.6070300000000001
7202.799999999999 0.60049
7203.3 0.5985199999999999
7203.8 0.5914699999999999
7204.299999999999 0.58728
7204.8 0.57861
7205.299999999999 0.57553
7205.8 0.57085
7206.3 0.56423
7206.799999999999 0.55837
7207.3 0.55125
7207.799999999999 0.5452400000000001
7208.3 0.5400699999999999
7208.8 0.535
7209.299999999999 0.52707
7209.8 0.52159
7210.299999999999 0.51474
7210.8 0.50822
7211.3 0.5004500000000001
7211.799999999999 0.4953
7212.3 0.48872
7212.799999999999 0.48341999999999996
7213.3 0.47586
7213.8 0.47101
7214.299999999999 0.46348
7214.8 0.45642000000000005
7215.299999999999 0.45261
7215.8 0.44283
7216.3 0.43622
7216.799999999999 0.42933
7217.3 0.42263
7217.799999999999 0.41723999999999994
7218.3 0.41129
7218.8 0.40259999999999996
7219.299999999999 0.39698999999999995
7219.8 0.38937
7220.299999999999 0.38597000000000004
7220.8 0.37631
7221.3 0.37107999999999997
7221.799999999999 0.36695999999999995
7222.3 0.35942
7222.799999999999 0.35142
7223.3 0.3483
7223.8 0.34237
7224.299999999999 0.33604
7224.8 0.32825000000000004
7225.299999999999 0.32209000000000004
7225.8 0.3164
7226.3 0.3126
7226.799999999999 0.30623
7227.3 0.2989
7227.799999999999 0.29427
7228.3 0.28832
7228.8 0.28281
7229.299999999999 0.27764
7229.8 0.27277
7230.299999999999 0.26708
7230.700000000001 0.26088
7231.2 0.25623999999999997
7231.7 0.25091
7232.200000000001 0.24498999999999999
7232.7 0.24102
7233.200000000001 0.23613
7233.7 0.23273
7234.2 0.22731
7234.700000000001 0.22361999999999999
7235.2 0.2187
7235.700000000001 0.21370999999999998
7236.2 0.20919000000000001
7236.7 0.20594
7237.200000000001 0.20085999999999998
7237.7 0.19623000000000002
7238.099999999999 0.19224
7238.6 0.19013000000000002
7239.099999999999 0.18462
7239.6 0.18139
7240.1 0.17767
7240.599999999999 0.17434000000000002
7241.1 0.16978000000000001
7241.599999999999 0.16742
7242.1 0.16348
7242.6 0.15933999999999998
7243.099999999999 0.15496000000000001
7243.6 0.15288000000000002
7244.0 0.14905
7244.5 0.14658
7245.0 0.14332
7245.5 0.1396
7246.0 0.13837
7246.5 0.13403
7247.0 0.13185
7247.5 0.12933
7248.0 0.12627
7248.400000000001 0.12259
7248.9 0.12061
7249.400000000001 0.11874000000000001
7249.9 0.11553000000000001
7250.4 0.11392
7250.900000000001 0.11099
7251.4 0.10894
7251.900000000001 0.10789
7252.4 0.10447
7252.799999999999 0.10293
7253.3 0.10048
7253.8 0.09808
7254.299999999999 0.09675
7254.8 0.09444000000000001
7255.299999999999 0.09236000000000001
7255.8 0.09058
7256.2 0.08979
7256.7 0.0867
7257.200000000001 0.08456
7257.7 0.08306
7258.200000000001 0.08141999999999999
7258.7 0.08013999999999999
7259.2 0.07805
7259.6 0.0771
7260.1 0.0759
7260.599999999999 0.07397999999999999
7261.1 0.07186
7261.599999999999 0.07048
7262.1 0.06899
7262.5 0.06758
7263.0 0.06689
7263.5 0.06501
7264.0 0.06356
7264.5 0.06232
7265.0 0.06174
7265.4 0.060039999999999996
7265.900000000001 0.05942
7266.4 0.05776
7266.900000000001 0.05686
7267.4 0.055540000000000006
7267.9 0.05409
7268.3 0.05309
7268.8 0.05226
7269.299999999999 0.05159
7269.8 0.050780000000000006
7270.299999999999 0.04999
7270.700000000001 0.0484
7271.2 0.04742
7271.7 0.04677
7272.200000000001 0.0463
7272.7 0.04521
7273.099999999999 0.04412
7273.6 0.043179999999999996
7274.099999999999 0.04197
7274.6 0.04173
7275.1 0.041319999999999996
7275.5 0.04003
7276.0 0.03964
7276.5 0.03841
7277.0 0.0382
7277.5 0.03763
7277.9 0.03628
7278.400000000001 0.03636
7278.9 0.03521
7279.400000000001 0.035
7279.8 0.034089999999999995
7280.299999999999 0.033769999999999994
7280.8 0.03299
7281.3 0.03238
7281.799999999999 0.03144
7282.200000000001 0.031120000000000002
7282.7 0.03048
7283.200000000001 0.030459999999999997
7283.7 0.02989
7284.099999999999 0.02932
7284.6 0.028450000000000003
7285.1 0.02811
7285.599999999999 0.02775
7286.0 0.02726
7286.5 0.026600000000000002
7287.0 0.026690000000000002
7287.5 0.02587
7287.9 0.025179999999999998
7288.400000000001 0.024980000000000002
7288.9 0.02426
7289.400000000001 0.02368
7289.8 0.023639999999999998
7290.299999999999 0.02351
7290.8 0.022959999999999998
7291.3 0.022250000000000002
7291.7 0.02221
7292.200000000001 0.02167
7292.7 0.0213
7293.200000000001 0.02108
7293.6 0.02035
7294.099999999999 0.020739999999999998
7294.6 0.01966
7295.0 0.01966
7295.5 0.019870000000000002
7296.0 0.01849
7296.5 0.01854
7296.900000000001 0.01825
7297.4 0.018000000000000002
7297.9 0.01774
7298.3 0.01748
7298.8 0.01734
7299.299999999999 0.01693
7299.700000000001 0.01664
7300.2 0.01636
7300.700000000001 0.016220000000000002
7301.2 0.01584
7301.599999999999 0.01555
7302.1 0.01554
7302.6 0.015269999999999999
7303.0 0.01542
7303.5 0.01518
7304.0 0.014530000000000001
7304.400000000001 0.01424
7304.9 0.01369
7305.4 0.013580000000000002
7305.8 0.01353
7306.3 0.013340000000000001
7306.799999999999 0.013600000000000001
7307.200000000001 0.01324
7307.7 0.01283
7308.200000000001 0.01254
7308.6 0.012549999999999999
7309.099999999999 0.012430000000000002
7309.6 0.012159999999999999
7310.0 0.01209
7310.5 0.011970000000000001
7311.0 0.01161
7311.4 0.0116
7311.900000000001 0.01119
7312.4 0.011080000000000001
7312.799999999999 0.01097
7313.3 0.0108
7313.8 0.01034
7314.2 0.01054
7314.700000000001 0.010249999999999999
7315.2 0.01034
7315.599999999999 0.00995
7316.1 0.010169999999999998
7316.599999999999 0.00982
7317.0 0.00942
7317.5 0.00951
7317.9 0.009260000000000001
7318.400000000001 0.00922
7318.9 0.009000000000000001
7319.299999999999 0.00891
7319.8 0.009000000000000001
7320.299999999999 0.0089
7320.700000000001 0.008409999999999999
7321.2 0.00864
7321.599999999999 0.00828
7322.1 0.00812
7322.6 0.00821
7323.0 0.00812
7323.5 0.0076
7324.0 0.00797
7324.400000000001 0.00747
7324.9 0.0076300000000000005
7325.299999999999 0.00753
7325.8 0.00773
7326.3 0.00743
7326.7 0.00711
7327.200000000001 0.00707
7327.6 0.006840000000000001
7328.099999999999 0.00676
7328.5 0.00681
7329.0 0.00711
7329.5 0.00661
7329.9 0.006670000000000001
7330.4 0.00639
7330.8 0.00666
7331.3 0.00622
7331.799999999999 0.00607
7332.200000000001 0.00611
7332.7 0.00603
7333.099999999999 0.005849999999999999
7333.6 0.00586
7334.0 0.00569
7334.5 0.00592
7335.0 0.0057399999999999994
7335.4 0.005639999999999999
7335.900000000001 0.00551
7336.3 0.0053300000000000005
7336.799999999999 0.00545
7337.200000000001 0.0054600000000000004
7337.7 0.00519
7338.099999999999 0.005
7338.6 0.00506
7339.099999999999 0.0052
7339.5 0.0049
7340.0 0.00489
7340.4 0.00483
7340.900000000001 0.00469
7341.3 0.0046300000000000004
7341.799999999999 0.00492
7342.200000000001 0.00457
7342.7 0.00462
7343.099999999999 0.00445
7343.6 0.0043
7344.0 0.00451
7344.5 0.00457
7345.0 0.00437
7345.4 0.004050000000000001
7345.900000000001 0.00439
7346.3 0.00398
7346.799999999999 0.00407
7347.200000000001 0.0039900000000000005
7347.7 0.0042899999999999995
7348.099999999999 0.00384
7348.6 0.0039000000000000003
7349.0 0.00391
7349.5 0.0037
7349.9 0.00393
7350.4 0.00387
7350.8 0.00385
7351.3 0.0034100000000000003
7351.7 0.0034899999999999996
7352.200000000001 0.00369
7352.6 0.0034000000000000002
7353.099999999999 0.0034100000000000003
7353.5 0.00337
7354.0 0.0035399999999999997
7354.400000000001 0.0034300000000000003
7354.9 0.0034999999999999996
7355.299999999999 0.0032
7355.8 0.00322
7356.2 0.0033900000000000002
7356.599999999999 0.00313
7357.1 0.00322
7357.5 0.00321
7358.0 0.00293
7358.400000000001 0.00311
7358.9 0.00296
7359.299999999999 0.00294
7359.8 0.00307
7360.2 0.00297
7360.700000000001 0.0030399999999999997
7361.1 0.0028399999999999996
7361.599999999999 0.00293
7362.0 0.0028599999999999997
7362.4 0.00292
7362.9 0.0027
7363.3 0.00261
7363.8 0.0025900000000000003
7364.2 0.00267
7364.700000000001 0.00265
7365.1 0.00253
7365.599999999999 0.00251
7366.0 0.0025700000000000002
7366.4 0.00242
7366.900000000001 0.00267
7367.3 0.0023499999999999997
7367.799999999999 0.0023899999999999998
7368.200000000001 0.00268
7368.7 0.00249
7369.099999999999 0.00252
7369.5 0.0023
7370.0 0.00249
7370.4 0.00245
7370.900000000001 0.00229
7371.3 0.00233
7371.799999999999 0.0022400000000000002
7372.200000000001 0.00233
7372.6 0.0022500000000000003
7373.099999999999 0.0023
7373.5 0.00217
7374.0 0.00216
7374.400000000001 0.00218
7374.8 0.00193
7375.299999999999 0.00214
7375.700000000001 0.0020499999999999997
7376.2 0.00199
7376.599999999999 0.00207
7377.0 0.00211
7377.5 0.00197
7377.9 0.0018599999999999999
7378.3 0.00202
7378.8 0.00196
7379.2 0.00188
7379.700000000001 0.00191
7380.1 0.00193
7380.5 0.00193
7381.0 0.0018
7381.4 0.00185
7381.799999999999 0.00182
7382.3 0.002
7382.7 0.0017399999999999998
7383.200000000001 0.00181
7383.6 0.00179
7384.0 0.00164
7384.5 0.00188
7384.9 0.0017299999999999998
7385.299999999999 0.00167
7385.8 0.00167
7386.2 0.00159
7386.599999999999 0.00159
7387.1 0.00165
7387.5 0.0016
7387.9 0.0017000000000000001
7388.400000000001 0.0017100000000000001
7388.8 0.00158
7389.2 0.00151
7389.700000000001 0.0017299999999999998
7390.1 0.00151
7390.5 0.00155
7391.0 0.00154
7391.4 0.00155
7391.799999999999 0.00153
7392.3 0.0016
7392.7 0.0015199999999999999
7393.099999999999 0.0016200000000000001
7393.6 0.00164
7394.0 0.00151
7394.400000000001 0.0
